#Opt. Const. of Al_updated vs. nm
#Wavelength (nm)	n	k
210.000000	0.107119	1.945220	
211.000000	0.107963	1.956702	
212.000000	0.108608	1.968301	
213.000000	0.109154	1.980046	
214.000000	0.109692	1.991919	
215.000000	0.110267	2.003849	
216.000000	0.110860	2.015790	
217.000000	0.111446	2.027732	
218.000000	0.112005	2.039690	
219.000000	0.112547	2.051695	
220.000000	0.113107	2.063756	
221.000000	0.113717	2.075862	
222.000000	0.114406	2.087974	
223.000000	0.115156	2.100044	
224.000000	0.115932	2.112053	
225.000000	0.116696	2.124006	
226.000000	0.117420	2.135931	
227.000000	0.118109	2.147872	
228.000000	0.118795	2.159847	
229.000000	0.119504	2.171854	
230.000000	0.120264	2.183875	
231.000000	0.121076	2.195874	
232.000000	0.121920	2.207834	
233.000000	0.122775	2.219749	
234.000000	0.123621	2.231627	
235.000000	0.124448	2.243487	
236.000000	0.125262	2.255344	
237.000000	0.126072	2.267205	
238.000000	0.126884	2.279075	
239.000000	0.127706	2.290951	
240.000000	0.128545	2.302833	
241.000000	0.129404	2.314717	
242.000000	0.130289	2.326600	
243.000000	0.131202	2.338476	
244.000000	0.132146	2.350335	
245.000000	0.133114	2.362169	
246.000000	0.134099	2.373973	
247.000000	0.135092	2.385747	
248.000000	0.136086	2.397494	
249.000000	0.137077	2.409220	
250.000000	0.138062	2.420929	
251.000000	0.139043	2.432627	
252.000000	0.140020	2.444316	
253.000000	0.140992	2.455999	
254.000000	0.141960	2.467682	
255.000000	0.142929	2.479367	
256.000000	0.143903	2.491056	
257.000000	0.144886	2.502750	
258.000000	0.145881	2.514448	
259.000000	0.146892	2.526148	
260.000000	0.147921	2.537848	
261.000000	0.148971	2.549546	
262.000000	0.150042	2.561238	
263.000000	0.151138	2.572922	
264.000000	0.152258	2.584592	
265.000000	0.153403	2.596240	
266.000000	0.154564	2.607862	
267.000000	0.155735	2.619455	
268.000000	0.156908	2.631022	
269.000000	0.158078	2.642566	
270.000000	0.159237	2.654092	
271.000000	0.160387	2.665612	
272.000000	0.161533	2.677132	
273.000000	0.162679	2.688654	
274.000000	0.163830	2.700179	
275.000000	0.164992	2.711707	
276.000000	0.166168	2.723235	
277.000000	0.167361	2.734758	
278.000000	0.168569	2.746274	
279.000000	0.169792	2.757780	
280.000000	0.171029	2.769276	
281.000000	0.172280	2.780760	
282.000000	0.173544	2.792230	
283.000000	0.174819	2.803684	
284.000000	0.176105	2.815123	
285.000000	0.177397	2.826545	
286.000000	0.178694	2.837950	
287.000000	0.179994	2.849341	
288.000000	0.181294	2.860717	
289.000000	0.182593	2.872083	
290.000000	0.183893	2.883442	
291.000000	0.185194	2.894796	
292.000000	0.186500	2.906146	
293.000000	0.187813	2.917492	
294.000000	0.189134	2.928832	
295.000000	0.190467	2.940166	
296.000000	0.191811	2.951489	
297.000000	0.193166	2.962797	
298.000000	0.194527	2.974090	
299.000000	0.195891	2.985365	
300.000000	0.197256	2.996625	
301.000000	0.198617	3.007870	
302.000000	0.199973	3.019104	
303.000000	0.201320	3.030331	
304.000000	0.202660	3.041557	
305.000000	0.203996	3.052786	
306.000000	0.205334	3.064020	
307.000000	0.206675	3.075258	
308.000000	0.208024	3.086501	
309.000000	0.209384	3.097747	
310.000000	0.210759	3.108994	
311.000000	0.212151	3.120236	
312.000000	0.213557	3.131470	
313.000000	0.214975	3.142693	
314.000000	0.216403	3.153903	
315.000000	0.217838	3.165101	
316.000000	0.219279	3.176285	
317.000000	0.220722	3.187458	
318.000000	0.222167	3.198620	
319.000000	0.223611	3.209773	
320.000000	0.225055	3.220921	
321.000000	0.226500	3.232064	
322.000000	0.227947	3.243203	
323.000000	0.229396	3.254340	
324.000000	0.230849	3.265473	
325.000000	0.232306	3.276603	
326.000000	0.233768	3.287731	
327.000000	0.235236	3.298856	
328.000000	0.236709	3.309978	
329.000000	0.238189	3.321097	
330.000000	0.239675	3.332212	
331.000000	0.241168	3.343324	
332.000000	0.242668	3.354431	
333.000000	0.244176	3.365533	
334.000000	0.245691	3.376631	
335.000000	0.247214	3.387722	
336.000000	0.248745	3.398808	
337.000000	0.250283	3.409885	
338.000000	0.251828	3.420954	
339.000000	0.253378	3.432015	
340.000000	0.254933	3.443067	
341.000000	0.256491	3.454111	
342.000000	0.258052	3.465147	
343.000000	0.259615	3.476174	
344.000000	0.261179	3.487195	
345.000000	0.262743	3.498210	
346.000000	0.264308	3.509220	
347.000000	0.265873	3.520225	
348.000000	0.267438	3.531227	
349.000000	0.269004	3.542226	
350.000000	0.270570	3.553223	
351.000000	0.272137	3.564218	
352.000000	0.273705	3.575212	
353.000000	0.275274	3.586206	
354.000000	0.276843	3.597200	
355.000000	0.278413	3.608196	
356.000000	0.279985	3.619196	
357.000000	0.281561	3.630199	
358.000000	0.283142	3.641207	
359.000000	0.284731	3.652220	
360.000000	0.286327	3.663237	
361.000000	0.287934	3.674257	
362.000000	0.289551	3.685279	
363.000000	0.291182	3.696304	
364.000000	0.292826	3.707328	
365.000000	0.294485	3.718349	
366.000000	0.296160	3.729365	
367.000000	0.297847	3.740372	
368.000000	0.299544	3.751368	
369.000000	0.301249	3.762354	
370.000000	0.302960	3.773329	
371.000000	0.304674	3.784292	
372.000000	0.306389	3.795247	
373.000000	0.308102	3.806192	
374.000000	0.309812	3.817130	
375.000000	0.311517	3.828065	
376.000000	0.313214	3.838997	
377.000000	0.314903	3.849935	
378.000000	0.316588	3.860882	
379.000000	0.318272	3.871841	
380.000000	0.319958	3.882813	
381.000000	0.321651	3.893799	
382.000000	0.323352	3.904799	
383.000000	0.325067	3.915812	
384.000000	0.326797	3.926837	
385.000000	0.328546	3.937873	
386.000000	0.330317	3.948918	
387.000000	0.332112	3.959969	
388.000000	0.333934	3.971022	
389.000000	0.335784	3.982071	
390.000000	0.337658	3.993111	
391.000000	0.339555	4.004140	
392.000000	0.341471	4.015156	
393.000000	0.343405	4.026157	
394.000000	0.345352	4.037144	
395.000000	0.347312	4.048116	
396.000000	0.349282	4.059072	
397.000000	0.351259	4.070013	
398.000000	0.353241	4.080939	
399.000000	0.355226	4.091853	
400.000000	0.357211	4.102756	
401.000000	0.359196	4.113649	
402.000000	0.361181	4.124539	
403.000000	0.363166	4.135425	
404.000000	0.365154	4.146309	
405.000000	0.367144	4.157192	
406.000000	0.369139	4.168076	
407.000000	0.371139	4.178959	
408.000000	0.373146	4.189843	
409.000000	0.375159	4.200727	
410.000000	0.377181	4.211612	
411.000000	0.379212	4.222497	
412.000000	0.381253	4.233383	
413.000000	0.383305	4.244267	
414.000000	0.385369	4.255151	
415.000000	0.387445	4.266032	
416.000000	0.389532	4.276910	
417.000000	0.391631	4.287783	
418.000000	0.393742	4.298652	
419.000000	0.395863	4.309517	
420.000000	0.397996	4.320376	
421.000000	0.400139	4.331230	
422.000000	0.402292	4.342079	
423.000000	0.404456	4.352921	
424.000000	0.406629	4.363759	
425.000000	0.408812	4.374589	
426.000000	0.411005	4.385415	
427.000000	0.413207	4.396233	
428.000000	0.415417	4.407045	
429.000000	0.417637	4.417852	
430.000000	0.419865	4.428652	
431.000000	0.422102	4.439446	
432.000000	0.424346	4.450234	
433.000000	0.426599	4.461016	
434.000000	0.428859	4.471792	
435.000000	0.431128	4.482561	
436.000000	0.433403	4.493325	
437.000000	0.435686	4.504083	
438.000000	0.437976	4.514836	
439.000000	0.440273	4.525582	
440.000000	0.442577	4.536324	
441.000000	0.444887	4.547060	
442.000000	0.447204	4.557792	
443.000000	0.449527	4.568519	
444.000000	0.451855	4.579242	
445.000000	0.454190	4.589962	
446.000000	0.456532	4.600679	
447.000000	0.458881	4.611393	
448.000000	0.461238	4.622105	
449.000000	0.463602	4.632814	
450.000000	0.465975	4.643521	
451.000000	0.468357	4.654225	
452.000000	0.470747	4.664927	
453.000000	0.473147	4.675626	
454.000000	0.475557	4.686322	
455.000000	0.477976	4.697015	
456.000000	0.480405	4.707705	
457.000000	0.482845	4.718391	
458.000000	0.485296	4.729074	
459.000000	0.487757	4.739753	
460.000000	0.490230	4.750426	
461.000000	0.492714	4.761095	
462.000000	0.495209	4.771757	
463.000000	0.497714	4.782413	
464.000000	0.500228	4.793062	
465.000000	0.502753	4.803705	
466.000000	0.505287	4.814341	
467.000000	0.507830	4.824969	
468.000000	0.510382	4.835591	
469.000000	0.512941	4.846206	
470.000000	0.515509	4.856813	
471.000000	0.518084	4.867414	
472.000000	0.520667	4.878009	
473.000000	0.523256	4.888596	
474.000000	0.525852	4.899178	
475.000000	0.528454	4.909753	
476.000000	0.531062	4.920322	
477.000000	0.533675	4.930886	
478.000000	0.536294	4.941446	
479.000000	0.538918	4.952002	
480.000000	0.541547	4.962555	
481.000000	0.544183	4.973105	
482.000000	0.546826	4.983653	
483.000000	0.549476	4.994199	
484.000000	0.552133	5.004742	
485.000000	0.554797	5.015283	
486.000000	0.557470	5.025823	
487.000000	0.560151	5.036360	
488.000000	0.562840	5.046895	
489.000000	0.565539	5.057429	
490.000000	0.568246	5.067960	
491.000000	0.570963	5.078490	
492.000000	0.573690	5.089017	
493.000000	0.576427	5.099543	
494.000000	0.579174	5.110066	
495.000000	0.581931	5.120586	
496.000000	0.584699	5.131104	
497.000000	0.587477	5.141620	
498.000000	0.590267	5.152132	
499.000000	0.593068	5.162642	
500.000000	0.595879	5.173147	
501.000000	0.598702	5.183649	
502.000000	0.601535	5.194148	
503.000000	0.604380	5.204642	
504.000000	0.607236	5.215134	
505.000000	0.610103	5.225621	
506.000000	0.612980	5.236104	
507.000000	0.615869	5.246583	
508.000000	0.618769	5.257058	
509.000000	0.621680	5.267529	
510.000000	0.624602	5.277995	
511.000000	0.627535	5.288457	
512.000000	0.630479	5.298915	
513.000000	0.633433	5.309369	
514.000000	0.636399	5.319818	
515.000000	0.639375	5.330264	
516.000000	0.642362	5.340705	
517.000000	0.645360	5.351143	
518.000000	0.648368	5.361577	
519.000000	0.651387	5.372007	
520.000000	0.654417	5.382435	
521.000000	0.657459	5.392860	
522.000000	0.660513	5.403282	
523.000000	0.663579	5.413702	
524.000000	0.666658	5.424118	
525.000000	0.669749	5.434531	
526.000000	0.672854	5.444941	
527.000000	0.675972	5.455348	
528.000000	0.679103	5.465751	
529.000000	0.682249	5.476151	
530.000000	0.685409	5.486547	
531.000000	0.688583	5.496939	
532.000000	0.691772	5.507327	
533.000000	0.694975	5.517710	
534.000000	0.698194	5.528089	
535.000000	0.701428	5.538463	
536.000000	0.704677	5.548831	
537.000000	0.707942	5.559195	
538.000000	0.711223	5.569552	
539.000000	0.714519	5.579903	
540.000000	0.717832	5.590247	
541.000000	0.721161	5.600584	
542.000000	0.724506	5.610912	
543.000000	0.727866	5.621233	
544.000000	0.731241	5.631545	
545.000000	0.734631	5.641847	
546.000000	0.738036	5.652141	
547.000000	0.741456	5.662426	
548.000000	0.744888	5.672700	
549.000000	0.748335	5.682965	
550.000000	0.751795	5.693222	
551.000000	0.755268	5.703468	
552.000000	0.758754	5.713705	
553.000000	0.762253	5.723932	
554.000000	0.765763	5.734149	
555.000000	0.769285	5.744358	
556.000000	0.772819	5.754557	
557.000000	0.776364	5.764748	
558.000000	0.779920	5.774929	
559.000000	0.783486	5.785101	
560.000000	0.787063	5.795266	
561.000000	0.790650	5.805422	
562.000000	0.794246	5.815570	
563.000000	0.797851	5.825712	
564.000000	0.801466	5.835848	
565.000000	0.805089	5.845979	
566.000000	0.808722	5.856107	
567.000000	0.812365	5.866232	
568.000000	0.816019	5.876355	
569.000000	0.819685	5.886476	
570.000000	0.823364	5.896596	
571.000000	0.827058	5.906715	
572.000000	0.830766	5.916832	
573.000000	0.834489	5.926949	
574.000000	0.838229	5.937064	
575.000000	0.841986	5.947177	
576.000000	0.845761	5.957290	
577.000000	0.849555	5.967400	
578.000000	0.853368	5.977508	
579.000000	0.857202	5.987614	
580.000000	0.861056	5.997716	
581.000000	0.864932	6.007816	
582.000000	0.868830	6.017912	
583.000000	0.872751	6.028003	
584.000000	0.876696	6.038090	
585.000000	0.880665	6.048171	
586.000000	0.884659	6.058245	
587.000000	0.888678	6.068313	
588.000000	0.892724	6.078373	
589.000000	0.896795	6.088424	
590.000000	0.900895	6.098466	
591.000000	0.905022	6.108496	
592.000000	0.909177	6.118514	
593.000000	0.913360	6.128516	
594.000000	0.917570	6.138502	
595.000000	0.921806	6.148470	
596.000000	0.926067	6.158421	
597.000000	0.930352	6.168353	
598.000000	0.934661	6.178265	
599.000000	0.938992	6.188157	
600.000000	0.943345	6.198029	
601.000000	0.947720	6.207880	
602.000000	0.952114	6.217710	
603.000000	0.956527	6.227519	
604.000000	0.960960	6.237306	
605.000000	0.965410	6.247072	
606.000000	0.969877	6.256816	
607.000000	0.974360	6.266539	
608.000000	0.978859	6.276240	
609.000000	0.983373	6.285921	
610.000000	0.987901	6.295579	
611.000000	0.992441	6.305218	
612.000000	0.996995	6.314835	
613.000000	1.001560	6.324433	
614.000000	1.006136	6.334011	
615.000000	1.010723	6.343570	
616.000000	1.015319	6.353110	
617.000000	1.019924	6.362633	
618.000000	1.024536	6.372139	
619.000000	1.029157	6.381629	
620.000000	1.033784	6.391105	
621.000000	1.038416	6.400569	
622.000000	1.043054	6.410023	
623.000000	1.047700	6.419471	
624.000000	1.052354	6.428913	
625.000000	1.057019	6.438350	
626.000000	1.061697	6.447784	
627.000000	1.066388	6.457214	
628.000000	1.071094	6.466643	
629.000000	1.075818	6.476069	
630.000000	1.080560	6.485493	
631.000000	1.085322	6.494914	
632.000000	1.090105	6.504333	
633.000000	1.094911	6.513751	
634.000000	1.099742	6.523165	
635.000000	1.104599	6.532576	
636.000000	1.109483	6.541984	
637.000000	1.114395	6.551388	
638.000000	1.119337	6.560788	
639.000000	1.124311	6.570181	
640.000000	1.129317	6.579569	
641.000000	1.134358	6.588950	
642.000000	1.139433	6.598323	
643.000000	1.144544	6.607687	
644.000000	1.149693	6.617042	
645.000000	1.154881	6.626385	
646.000000	1.160110	6.635716	
647.000000	1.165379	6.645033	
648.000000	1.170690	6.654335	
649.000000	1.176046	6.663620	
650.000000	1.181446	6.672887	
651.000000	1.186892	6.682133	
652.000000	1.192385	6.691356	
653.000000	1.197926	6.700554	
654.000000	1.203518	6.709723	
655.000000	1.209158	6.718858	
656.000000	1.214846	6.727956	
657.000000	1.220579	6.737015	
658.000000	1.226355	6.746031	
659.000000	1.232173	6.755005	
660.000000	1.238032	6.763934	
661.000000	1.243927	6.772815	
662.000000	1.249860	6.781650	
663.000000	1.255826	6.790436	
664.000000	1.261824	6.799172	
665.000000	1.267854	6.807858	
666.000000	1.273913	6.816494	
667.000000	1.279998	6.825078	
668.000000	1.286109	6.833610	
669.000000	1.292243	6.842090	
670.000000	1.298400	6.850519	
671.000000	1.304577	6.858895	
672.000000	1.310773	6.867218	
673.000000	1.316986	6.875490	
674.000000	1.323215	6.883710	
675.000000	1.329457	6.891878	
676.000000	1.335712	6.899995	
677.000000	1.341978	6.908061	
678.000000	1.348253	6.916076	
679.000000	1.354535	6.924042	
680.000000	1.360825	6.931959	
681.000000	1.367118	6.939827	
682.000000	1.373415	6.947649	
683.000000	1.379713	6.955425	
684.000000	1.386012	6.963156	
685.000000	1.392310	6.970844	
686.000000	1.398604	6.978491	
687.000000	1.404894	6.986098	
688.000000	1.411178	6.993668	
689.000000	1.417454	7.001203	
690.000000	1.423720	7.008708	
691.000000	1.429977	7.016189	
692.000000	1.436226	7.023651	
693.000000	1.442472	7.031097	
694.000000	1.448716	7.038531	
695.000000	1.454963	7.045954	
696.000000	1.461217	7.053368	
697.000000	1.467479	7.060773	
698.000000	1.473754	7.068172	
699.000000	1.480044	7.075565	
700.000000	1.486354	7.082952	
701.000000	1.492686	7.090334	
702.000000	1.499044	7.097710	
703.000000	1.505430	7.105080	
704.000000	1.511848	7.112443	
705.000000	1.518301	7.119800	
706.000000	1.524792	7.127148	
707.000000	1.531324	7.134488	
708.000000	1.537900	7.141818	
709.000000	1.544523	7.149136	
710.000000	1.551196	7.156441	
711.000000	1.557922	7.163733	
712.000000	1.564705	7.171008	
713.000000	1.571546	7.178265	
714.000000	1.578448	7.185502	
715.000000	1.585416	7.192717	
716.000000	1.592451	7.199907	
717.000000	1.599556	7.207069	
718.000000	1.606735	7.214201	
719.000000	1.613990	7.221301	
720.000000	1.621323	7.228364	
721.000000	1.628739	7.235387	
722.000000	1.636239	7.242367	
723.000000	1.643826	7.249300	
724.000000	1.651505	7.256182	
725.000000	1.659277	7.263008	
726.000000	1.667145	7.269774	
727.000000	1.675113	7.276474	
728.000000	1.683184	7.283102	
729.000000	1.691360	7.289650	
730.000000	1.699648	7.296113	
731.000000	1.708048	7.302477	
732.000000	1.716562	7.308729	
733.000000	1.725182	7.314857	
734.000000	1.733903	7.320852	
735.000000	1.742719	7.326708	
736.000000	1.751623	7.332418	
737.000000	1.760609	7.337976	
738.000000	1.769672	7.343378	
739.000000	1.778805	7.348618	
740.000000	1.788002	7.353693	
741.000000	1.797257	7.358601	
742.000000	1.806564	7.363336	
743.000000	1.815918	7.367898	
744.000000	1.825312	7.372282	
745.000000	1.834740	7.376487	
746.000000	1.844198	7.380512	
747.000000	1.853679	7.384354	
748.000000	1.863179	7.388011	
749.000000	1.872692	7.391484	
750.000000	1.882212	7.394770	
751.000000	1.891733	7.397868	
752.000000	1.901252	7.400778	
753.000000	1.910762	7.403500	
754.000000	1.920259	7.406032	
755.000000	1.929739	7.408374	
756.000000	1.939195	7.410527	
757.000000	1.948622	7.412489	
758.000000	1.958017	7.414262	
759.000000	1.967375	7.415845	
760.000000	1.976690	7.417238	
761.000000	1.985959	7.418441	
762.000000	1.995177	7.419456	
763.000000	2.004338	7.420282	
764.000000	2.013440	7.420920	
765.000000	2.022477	7.421371	
766.000000	2.031445	7.421635	
767.000000	2.040340	7.421713	
768.000000	2.049158	7.421606	
769.000000	2.057894	7.421315	
770.000000	2.066545	7.420840	
771.000000	2.075106	7.420183	
772.000000	2.083574	7.419344	
773.000000	2.091944	7.418326	
774.000000	2.100212	7.417128	
775.000000	2.108375	7.415751	
776.000000	2.116428	7.414197	
777.000000	2.124369	7.412466	
778.000000	2.132192	7.410560	
779.000000	2.139894	7.408478	
780.000000	2.147470	7.406222	
781.000000	2.154915	7.403795	
782.000000	2.162225	7.401195	
783.000000	2.169396	7.398427	
784.000000	2.176424	7.395490	
785.000000	2.183302	7.392388	
786.000000	2.190029	7.389121	
787.000000	2.196599	7.385693	
788.000000	2.203008	7.382104	
789.000000	2.209252	7.378356	
790.000000	2.215326	7.374454	
791.000000	2.221226	7.370398	
792.000000	2.226948	7.366190	
793.000000	2.232487	7.361834	
794.000000	2.237839	7.357332	
795.000000	2.243000	7.352686	
796.000000	2.247965	7.347900	
797.000000	2.252731	7.342976	
798.000000	2.257293	7.337916	
799.000000	2.261646	7.332726	
800.000000	2.265787	7.327405	
801.000000	2.269710	7.321960	
802.000000	2.273412	7.316393	
803.000000	2.276888	7.310707	
804.000000	2.280133	7.304905	
805.000000	2.283144	7.298993	
806.000000	2.285917	7.292972	
807.000000	2.288445	7.286848	
808.000000	2.290725	7.280624	
809.000000	2.292753	7.274305	
810.000000	2.294523	7.267896	
811.000000	2.296032	7.261399	
812.000000	2.297274	7.254822	
813.000000	2.298246	7.248168	
814.000000	2.298941	7.241442	
815.000000	2.299355	7.234650	
816.000000	2.299484	7.227799	
817.000000	2.299322	7.220893	
818.000000	2.298865	7.213938	
819.000000	2.298107	7.206942	
820.000000	2.297043	7.199911	
821.000000	2.295668	7.192852	
822.000000	2.293977	7.185773	
823.000000	2.291963	7.178683	
824.000000	2.289622	7.171589	
825.000000	2.286947	7.164503	
826.000000	2.283931	7.157435	
827.000000	2.280569	7.150395	
828.000000	2.276854	7.143400	
829.000000	2.272777	7.136467	
830.000000	2.268343	7.129621	
831.000000	2.263556	7.122878	
832.000000	2.258423	7.116253	
833.000000	2.252951	7.109762	
834.000000	2.247147	7.103415	
835.000000	2.241018	7.097224	
836.000000	2.234573	7.091202	
837.000000	2.227818	7.085356	
838.000000	2.220762	7.079698	
839.000000	2.213413	7.074237	
840.000000	2.205779	7.068980	
841.000000	2.197868	7.063937	
842.000000	2.189690	7.059114	
843.000000	2.181252	7.054517	
844.000000	2.172563	7.050156	
845.000000	2.163632	7.046035	
846.000000	2.154467	7.042161	
847.000000	2.145078	7.038539	
848.000000	2.135473	7.035176	
849.000000	2.125662	7.032074	
850.000000	2.115653	7.029241	
851.000000	2.105456	7.026679	
852.000000	2.095079	7.024392	
853.000000	2.084532	7.022385	
854.000000	2.073825	7.020660	
855.000000	2.062965	7.019222	
856.000000	2.051964	7.018072	
857.000000	2.040830	7.017212	
858.000000	2.029572	7.016647	
859.000000	2.018201	7.016376	
860.000000	2.006724	7.016402	
861.000000	1.995152	7.016725	
862.000000	1.983494	7.017347	
863.000000	1.971759	7.018269	
864.000000	1.959958	7.019490	
865.000000	1.948099	7.021011	
866.000000	1.936191	7.022832	
867.000000	1.924244	7.024952	
868.000000	1.912267	7.027369	
869.000000	1.900270	7.030084	
870.000000	1.888261	7.033094	
871.000000	1.876251	7.036398	
872.000000	1.864247	7.039994	
873.000000	1.852260	7.043879	
874.000000	1.840298	7.048050	
875.000000	1.828370	7.052505	
876.000000	1.816485	7.057240	
877.000000	1.804653	7.062252	
878.000000	1.792881	7.067536	
879.000000	1.781178	7.073089	
880.000000	1.769553	7.078904	
881.000000	1.758015	7.084978	
882.000000	1.746573	7.091304	
883.000000	1.735234	7.097876	
884.000000	1.724008	7.104688	
885.000000	1.712901	7.111732	
886.000000	1.701924	7.119000	
887.000000	1.691084	7.126483	
888.000000	1.680390	7.134169	
889.000000	1.669846	7.142043	
890.000000	1.659452	7.150091	
891.000000	1.649208	7.158304	
892.000000	1.639113	7.166672	
893.000000	1.629167	7.175188	
894.000000	1.619368	7.183842	
895.000000	1.609715	7.192627	
896.000000	1.600207	7.201537	
897.000000	1.590842	7.210565	
898.000000	1.581620	7.219705	
899.000000	1.572538	7.228951	
900.000000	1.563595	7.238297	
901.000000	1.554788	7.247739	
902.000000	1.546118	7.257271	
903.000000	1.537580	7.266888	
904.000000	1.529175	7.276586	
905.000000	1.520899	7.286360	
906.000000	1.512752	7.296207	
907.000000	1.504730	7.306122	
908.000000	1.496832	7.316101	
909.000000	1.489058	7.326141	
910.000000	1.481403	7.336238	
911.000000	1.473866	7.346390	
912.000000	1.466445	7.356592	
913.000000	1.459139	7.366842	
914.000000	1.451945	7.377137	
915.000000	1.444860	7.387475	
916.000000	1.437885	7.397851	
917.000000	1.431015	7.408264	
918.000000	1.424249	7.418712	
919.000000	1.417586	7.429191	
920.000000	1.411022	7.439701	
921.000000	1.404556	7.450239	
922.000000	1.398187	7.460802	
923.000000	1.391912	7.471389	
924.000000	1.385728	7.481999	
925.000000	1.379635	7.492629	
926.000000	1.373630	7.503277	
927.000000	1.367710	7.513942	
928.000000	1.361876	7.524623	
929.000000	1.356123	7.535319	
930.000000	1.350451	7.546028	
931.000000	1.344857	7.556748	
932.000000	1.339340	7.567479	
933.000000	1.333897	7.578219	
934.000000	1.328527	7.588968	
935.000000	1.323229	7.599724	
936.000000	1.317999	7.610487	
937.000000	1.312837	7.621256	
938.000000	1.307740	7.632030	
939.000000	1.302706	7.642809	
940.000000	1.297735	7.653591	
941.000000	1.292824	7.664377	
942.000000	1.287971	7.675165	
943.000000	1.283175	7.685956	
944.000000	1.278434	7.696749	
945.000000	1.273746	7.707544	
946.000000	1.269110	7.718341	
947.000000	1.264524	7.729138	
948.000000	1.259986	7.739938	
949.000000	1.255495	7.750739	
950.000000	1.251049	7.761541	
951.000000	1.246646	7.772345	
952.000000	1.242285	7.783151	
953.000000	1.237965	7.793959	
954.000000	1.233683	7.804770	
955.000000	1.229438	7.815586	
956.000000	1.225228	7.826406	
957.000000	1.221053	7.837232	
958.000000	1.216911	7.848066	
959.000000	1.212803	7.858909	
960.000000	1.208729	7.869763	
961.000000	1.204689	7.880628	
962.000000	1.200683	7.891503	
963.000000	1.196711	7.902390	
964.000000	1.192773	7.913291	
965.000000	1.188870	7.924203	
966.000000	1.185000	7.935129	
967.000000	1.181165	7.946067	
968.000000	1.177364	7.957018	
969.000000	1.173598	7.967983	
970.000000	1.169867	7.978962	
971.000000	1.166170	7.989954	
972.000000	1.162508	8.000960	
973.000000	1.158881	8.011979	
974.000000	1.155289	8.023012	
975.000000	1.151732	8.034059	
976.000000	1.148211	8.045119	
977.000000	1.144724	8.056193	
978.000000	1.141273	8.067280	
979.000000	1.137857	8.078381	
980.000000	1.134477	8.089494	
981.000000	1.131133	8.100621	
982.000000	1.127824	8.111760	
983.000000	1.124551	8.122913	
984.000000	1.121313	8.134078	
985.000000	1.118112	8.145255	
986.000000	1.114946	8.156445	
987.000000	1.111817	8.167646	
988.000000	1.108724	8.178860	
989.000000	1.105667	8.190084	
990.000000	1.102645	8.201321	
991.000000	1.099661	8.212567	
992.000000	1.096712	8.223825	
993.000000	1.093800	8.235095	
994.000000	1.090924	8.246374	
995.000000	1.088085	8.257663	
996.000000	1.085282	8.268962	
997.000000	1.082515	8.280272	
998.000000	1.079785	8.291589	
999.000000	1.077092	8.302917	
1000.000000	1.074435	8.314252	
1006.000000	1.059263	8.382430	
1012.000000	1.045412	8.450843	
1018.000000	1.032881	8.519416	
1024.000000	1.021667	8.588069	
1030.000000	1.011767	8.656715	
1036.000000	1.003174	8.725252	
1042.000000	0.995863	8.793534	
1048.000000	0.989729	8.861429	
1054.000000	0.984651	8.928856	
1060.000000	0.980514	8.995767	
1066.000000	0.977212	9.062131	
1072.000000	0.974643	9.127930	
1078.000000	0.972714	9.193159	
1084.000000	0.971338	9.257819	
1090.000000	0.970432	9.321921	
1096.000000	0.969922	9.385482	
1102.000000	0.969737	9.448522	
1108.000000	0.969811	9.511069	
1114.000000	0.970084	9.573155	
1120.000000	0.970499	9.634819	
1126.000000	0.971003	9.696105	
1132.000000	0.971546	9.757071	
1138.000000	0.972101	9.817801	
1144.000000	0.972683	9.878364	
1150.000000	0.973312	9.938798	
1156.000000	0.974007	9.999136	
1162.000000	0.974786	10.059400	
1168.000000	0.975667	10.119607	
1174.000000	0.976663	10.179768	
1180.000000	0.977790	10.239890	
1186.000000	0.979061	10.299981	
1192.000000	0.980486	10.360043	
1198.000000	0.982078	10.420075	
1204.000000	0.983846	10.480079	
1210.000000	0.985798	10.540050	
1216.000000	0.987942	10.599984	
1222.000000	0.990285	10.659879	
1228.000000	0.992834	10.719725	
1234.000000	0.995593	10.779515	
1240.000000	0.998568	10.839240	
1246.000000	1.001763	10.898886	
1252.000000	1.005177	10.958436	
1258.000000	1.008799	11.017877	
1264.000000	1.012618	11.077196	
1270.000000	1.016625	11.136390	
1276.000000	1.020809	11.195453	
1282.000000	1.025160	11.254382	
1288.000000	1.029669	11.313173	
1294.000000	1.034327	11.371827	
1300.000000	1.039126	11.430342	
1306.000000	1.044055	11.488717	
1312.000000	1.049109	11.546953	
1318.000000	1.054279	11.605050	
1324.000000	1.059557	11.663010	
1330.000000	1.064937	11.720833	
1336.000000	1.070411	11.778521	
1342.000000	1.075973	11.836076	
1348.000000	1.081618	11.893500	
1354.000000	1.087338	11.950797	
1360.000000	1.093128	12.007966	
1366.000000	1.098982	12.065014	
1372.000000	1.104896	12.121941	
1378.000000	1.110863	12.178753	
1384.000000	1.116879	12.235451	
1390.000000	1.122940	12.292043	
1396.000000	1.129044	12.348533	
1402.000000	1.135188	12.404923	
1408.000000	1.141370	12.461218	
1414.000000	1.147589	12.517421	
1420.000000	1.153844	12.573534	
1426.000000	1.160131	12.629561	
1432.000000	1.166449	12.685503	
1438.000000	1.172797	12.741363	
1444.000000	1.179173	12.797144	
1450.000000	1.185575	12.852847	
1456.000000	1.192001	12.908476	
1462.000000	1.198450	12.964033	
1468.000000	1.204921	13.019520	
1474.000000	1.211410	13.074939	
1480.000000	1.217918	13.130294	
1486.000000	1.224442	13.185585	
1492.000000	1.230981	13.240817	
1498.000000	1.237533	13.295992	
1504.000000	1.244098	13.351111	
1510.000000	1.250672	13.406178	
1516.000000	1.257255	13.461198	
1522.000000	1.263845	13.516171	
1528.000000	1.270441	13.571103	
1534.000000	1.277041	13.625995	
1540.000000	1.283644	13.680852	
1546.000000	1.290249	13.735679	
1552.000000	1.296853	13.790480	
1558.000000	1.303455	13.845263	
1564.000000	1.310056	13.900039	
1570.000000	1.316661	13.954814	
1576.000000	1.323278	14.009595	
1582.000000	1.329913	14.064384	
1588.000000	1.336573	14.119184	
1594.000000	1.343263	14.173995	
1600.000000	1.349988	14.228819	
1606.000000	1.356754	14.283654	
1612.000000	1.363565	14.338502	
1618.000000	1.370427	14.393360	
1624.000000	1.377342	14.448228	
1630.000000	1.384315	14.503103	
1636.000000	1.391349	14.557985	
1642.000000	1.398448	14.612871	
1648.000000	1.405615	14.667760	
1654.000000	1.412852	14.722648	
1660.000000	1.420162	14.777534	
1666.000000	1.427547	14.832415	
1672.000000	1.435009	14.887289	
1678.000000	1.442550	14.942152	
1684.000000	1.450173	14.997003	
1690.000000	1.457877	15.051839	
1696.000000	1.465665	15.106656	
1702.000000	1.473538	15.161451	
1708.000000	1.481497	15.216225	
1714.000000	1.489543	15.270969	
1720.000000	1.497675	15.325686	
1726.000000	1.505896	15.380367	
1732.000000	1.514205	15.435014	
1738.000000	1.522604	15.489622	
1744.000000	1.531091	15.544187	
1750.000000	1.539667	15.598706	
1756.000000	1.548333	15.653177	
1762.000000	1.557088	15.707597	
1768.000000	1.565933	15.761959	
1774.000000	1.574867	15.816261	
1780.000000	1.583890	15.870499	
1786.000000	1.593001	15.924664	
1792.000000	1.602198	15.978751	
1798.000000	1.611473	16.032757	
1804.000000	1.620822	16.086674	
1810.000000	1.630241	16.140505	
1816.000000	1.639723	16.194242	
1822.000000	1.649264	16.247890	
1828.000000	1.658860	16.301445	
1834.000000	1.668506	16.354906	
1840.000000	1.678197	16.408274	
1846.000000	1.687930	16.461548	
1852.000000	1.697700	16.514729	
1858.000000	1.707503	16.567818	
1864.000000	1.717335	16.620813	
1870.000000	1.727193	16.673717	
1876.000000	1.737072	16.726532	
1882.000000	1.746971	16.779255	
1888.000000	1.756884	16.831894	
1894.000000	1.766810	16.884443	
1900.000000	1.776743	16.936909	
1906.000000	1.786683	16.989292	
1912.000000	1.796625	17.041594	
1918.000000	1.806567	17.093813	
1924.000000	1.816506	17.145958	
1930.000000	1.826439	17.198027	
1936.000000	1.836365	17.250021	
1942.000000	1.846279	17.301945	
1948.000000	1.856181	17.353800	
1954.000000	1.866066	17.405588	
1960.000000	1.875934	17.457314	
1966.000000	1.885782	17.508978	
1972.000000	1.895608	17.560583	
1978.000000	1.905409	17.612133	
1984.000000	1.915185	17.663631	
1990.000000	1.924932	17.715080	
1996.000000	1.934649	17.766483	
2002.000000	1.944334	17.817841	
2008.000000	1.953985	17.869162	
2014.000000	1.963601	17.920444	
2020.000000	1.973179	17.971695	
2026.000000	1.982719	18.022919	
2032.000000	1.992218	18.074118	
2038.000000	2.001675	18.125298	
2044.000000	2.011087	18.176462	
2050.000000	2.020455	18.227617	
2056.000000	2.029775	18.278767	
2062.000000	2.039047	18.329920	
2068.000000	2.048268	18.381081	
2074.000000	2.057436	18.432257	
2080.000000	2.066552	18.483461	
2086.000000	2.075613	18.534704	
2092.000000	2.084627	18.586004	
2098.000000	2.093607	18.637371	
2104.000000	2.102563	18.688807	
2110.000000	2.111504	18.740320	
2116.000000	2.120441	18.791912	
2122.000000	2.129383	18.843586	
2128.000000	2.138339	18.895344	
2134.000000	2.147319	18.947186	
2140.000000	2.156329	18.999111	
2146.000000	2.165379	19.051121	
2152.000000	2.174477	19.103212	
2158.000000	2.183630	19.155384	
2164.000000	2.192843	19.207636	
2170.000000	2.202126	19.259964	
2176.000000	2.211484	19.312368	
2182.000000	2.220922	19.364843	
2188.000000	2.230448	19.417389	
2194.000000	2.240066	19.469999	
2200.000000	2.249782	19.522673	
2206.000000	2.259601	19.575405	
2212.000000	2.269526	19.628193	
2218.000000	2.279564	19.681034	
2224.000000	2.289719	19.733923	
2230.000000	2.299993	19.786854	
2236.000000	2.310392	19.839828	
2242.000000	2.320918	19.892838	
2248.000000	2.331576	19.945877	
2254.000000	2.342367	19.998945	
2260.000000	2.353296	20.052038	
2266.000000	2.364365	20.105148	
2272.000000	2.375576	20.158276	
2278.000000	2.386932	20.211411	
2284.000000	2.398435	20.264555	
2290.000000	2.410088	20.317698	
2296.000000	2.421892	20.370840	
2302.000000	2.433850	20.423973	
2308.000000	2.445961	20.477097	
2314.000000	2.458230	20.530203	
2320.000000	2.470656	20.583288	
2326.000000	2.483241	20.636351	
2332.000000	2.495986	20.689381	
2338.000000	2.508892	20.742380	
2344.000000	2.521961	20.795340	
2350.000000	2.535192	20.848257	
2356.000000	2.548587	20.901125	
2362.000000	2.562146	20.953945	
2368.000000	2.575870	21.006706	
2374.000000	2.589759	21.059408	
2380.000000	2.603814	21.112045	
2386.000000	2.618035	21.164614	
2392.000000	2.632422	21.217108	
2398.000000	2.646975	21.269522	
2404.000000	2.661695	21.321856	
2410.000000	2.676581	21.374102	
2416.000000	2.691633	21.426254	
2422.000000	2.706853	21.478312	
2428.000000	2.722238	21.530268	
2434.000000	2.737790	21.582119	
2440.000000	2.753508	21.633858	
2446.000000	2.769391	21.685482	
2452.000000	2.785439	21.736986	
2458.000000	2.801654	21.788363	
2464.000000	2.818034	21.839607	
2470.000000	2.834578	21.890717	
2476.000000	2.851287	21.941681	
2482.000000	2.868161	21.992495	
2488.000000	2.885200	22.043154	
2494.000000	2.902401	22.093651	
2500.000000	2.919768	22.143976	