#;  Optical constants for DMF (just used 1.43 for all lambda)  
#;    Lambda (nm)            n            k
#;-----------------------------------------
100	1.43	0
119.938	1.43	0
139.953	1.43	0
179.882	1.43	0
219.772	1.43	0
259.998	1.43	0
299.925	1.43	0
339.662	1.43	0
380.213	1.43	0
419.802	1.43	0
460.174	1.43	0
499.98	1.43	0
539.348	1.43	0
579.346	1.43	0
619.559	1.43	0
660.487	1.43	0
699.78	1.43	0
739.605	1.43	0
779.994	1.43	0
820.299	1.43	0
859.063	1.43	0
899.253	1.43	0
939.812	1.43	0
979.382	1.43	0
1020.92	1.43	0
1059.21	1.43	0
1099.02	1.43	0
1140.26	1.43	0
1180.31	1.43	0
1218.84	1.43	0
1258.92	1.43	0
1300.17	1.43	0
1339.72	1.43	0
1380.39	1.43	0
1418.99	1.43	0
1458.73	1.43	0
1499.64	1.43	0
1541.71	1.43	0
1581.22	1.43	0
1621.73	1.43	0
1659.42	1.43	0
1698.31	1.43	0
1741.78	1.43	0
1798.82	1.43	0
1901.07	1.43	0
1999.94	1.43	0
2099.01	1.43	0
2249.11	1.43	0
2500.5	1.43	0
2747.91	1.43	0
2999.25	1.43	0
3250.83	1.43	0
3498.8	1.43	0
3749.36	1.43	0
3999.87	1.43	0
4246.18	1.43	0
4498.22	1.43	0
4752.74	1.43	0
4999.8	1.43	0
5249.16	1.43	0
5494.35	1.43	0
5753.4	1.43	0
5998.65	1.43	0
6249.62	1.43	0
6501.65	1.43	0
6742.81	1.43	0
6997.8	1.43	0
7246.06	1.43	0
7495.77	1.43	0
7745.85	1.43	0
7999.74	1.43	0
8243.9	1.43	0
8488.87	1.43	0
8748.85	1.43	0
8992.53	1.43	0
9250.17	1.43	0
9505.48	1.43	0
9746.09	1.43	0
10000	1.43	0
10495.2	1.43	0
10990.2	1.43	0
11507.3	1.43	0
11993.8	1.43	0
12502.6	1.43	0
13001.7	1.43	0
13489.3	1.43	0
13995.3	1.43	0
14488	1.43	0
14996.4	1.43	0
15486.5	1.43	0
15994.3	1.43	0
16481.9	1.43	0
16983.1	1.43	0
17497.2	1.43	0
17988.2	1.43	0
18490.4	1.43	0
19010.7	1.43	0
19496.2	1.43	0
19999.4	1.43	0
20511.9	1.43	0
20990.1	1.43	0
21477	1.43	0
21977.2	1.43	0
22491.1	1.43	0
23014.2	1.43	0
23495.3	1.43	0
23985.8	1.43	0
24490.8	1.43	0
25005	1.43	0
25528.7	1.43	0
25646.4	1.43	0
25939.4	1.43	0
26300.9	1.43	0
26665.8	1.43	0
27040.3	1.43	0
27411	1.43	0
27800.1	1.43	0
28183.7	1.43	0
28578.7	1.43	0
28976.1	1.43	0
29376.4	1.43	0
29849.5	1.43	0
31988.2	1.43	0
39539.5	1.43	0
41980.2	1.43	0
44462.8	1.43	0
46990.6	1.43	0
49552.4	1.43	0
52000.7	1.43	0
54434.5	1.43	0
57010.2	1.43	0
59557.1	1.43	0
61955.9	1.43	0
63976.5	1.43	0
66530.7	1.43	0
69012	1.43	0
71425.3	1.43	0
73960.5	1.43	0
76568.7	1.43	0
79048.7	1.43	0
81496.1	1.43	0
83957.5	1.43	0
86499.7	1.43	0
88887.3	1.43	0
91403.7	1.43	0
93981.2	1.43	0
96617.8	1.43	0
99104.7	1.43	0
101382	1.43	0
103993	1.43	0
106411	1.43	0
108888	1.43	0
111433	1.43	0
114026	1.43	0
116413	1.43	0
119108	1.43	0
121621	1.43	0
123881	1.43	0
126465	1.43	0
129111	1.43	0
131521	1.43	0
133972	1.43	0
136458	1.43	0
138999	1.43	0
141577	1.43	0
143880	1.43	0
146557	1.43	0
148937	1.43	0
151348	1.43	0
154171	1.43	0
156659	1.43	0
158851	1.43	0
161441	1.43	0
164062	1.43	0
166327	1.43	0
169028	1.43	0
171402	1.43	0
174178	1.43	0
176610	1.43	0
179043	1.43	0
181547	1.43	0
184053	1.43	0
186630	1.43	0
188778	1.43	0
191416	1.43	0
194092	1.43	0
196342	1.43	0
199075	1.43	0
230142	1.43	0
279865	1.43	0
330349	1.43	0
380213	1.43	0
429532	1.43	0
479836	1.43	0
559881	1.43	0
660487	1.43	0
760427	1.43	0
859063	1.43	0
959672	1.43	0
1.30E+06	1.43	0
1.80E+06	1.43	0
2.30E+06	1.43	0
2.80E+06	1.43	0
3.60E+06	1.43	0
4.60E+06	1.43	0
5.60E+06	1.43	0
7.50E+06	1.43	0
1.00E+07	1.43	0
1.50E+07	1.43	0
2.00E+07	1.43	0
2.50E+07	1.43	0
3.00E+07	1.43	0
3.50E+07	1.43	0
4.00E+07	1.43	0
4.50E+07	1.43	0
5.00E+07	1.43	0
5.50E+07	1.43	0
6.00E+07	1.43	0
6.50E+07	1.43	0
7.00E+07	1.43	0
7.50E+07	1.43	0
8.00E+07	1.43	0
8.50E+07	1.43	0
9.00E+07	1.43	0
9.50E+07	1.43	0
1.00E+08	1.43	0
1.50E+08	1.43	0
2.00E+08	1.43	0
2.50E+08	1.43	0
3.00E+08	1.43	0
3.50E+08	1.43	0
4.00E+08	1.43	0
4.50E+08	1.43	0
5.00E+08	1.43	0
5.50E+08	1.43	0
6.00E+08	1.43	0
6.50E+08	1.43	0
7.00E+08	1.43	0
7.50E+08	1.43	0
8.00E+08	1.43	0
8.50E+08	1.43	0
9.00E+08	1.43	0
9.50E+08	1.43	0
1.00E+09	1.43	0
1.50E+09	1.43	0
2.00E+09	1.43	0
2.50E+09	1.43	0
3.00E+09	1.43	0
3.50E+09	1.43	0
4.00E+09	1.43	0
4.50E+09	1.43	0
5.00E+09	1.43	0
5.49E+09	1.43	0
6.00E+09	1.43	0
6.50E+09	1.43	0
7.00E+09	1.43	0
7.50E+09	1.43	0
8.00E+09	1.43	0
8.49E+09	1.43	0
8.99E+09	1.43	0
9.51E+09	1.43	0
1.00E+10	1.43	0
1.50E+10	1.43	0
2.00E+10	1.43	0
2.50E+10	1.43	0
3.00E+10	1.43	0
3.50E+10	1.43	0
4.00E+10	1.43	0
4.50E+10	1.43	0
5.00E+10	1.43	0
5.49E+10	1.43	0
6.00E+10	1.43	0
6.50E+10	1.43	0
7.00E+10	1.43	0
7.50E+10	1.43	0
8.00E+10	1.43	0
8.49E+10	1.43	0
8.99E+10	1.43	0
9.51E+10	1.43	0
1.00E+11	1.43	0
